Freq (Hz),Real,Imaginary
0.0000000000,1.0000000000,0.0000000000
1.9500000000,0.9974200000,0.0835980000
3.9100000000,0.9825000000,0.1749500000
5.8600000000,0.9499000000,0.2664000000
7.8100000000,0.9119300000,0.3453300000
9.7700000000,0.8632200000,0.4192800000
11.7000000000,0.8057700000,0.4870800000
13.7000000000,0.7429400000,0.5548700000
15.6000000000,0.6727600000,0.6182900000
17.6000000000,0.5930400000,0.6729600000
19.5000000000,0.5075500000,0.7310100000
21.5000000000,0.4180900000,0.7773400000
23.4000000000,0.3151100000,0.8216700000
25.4000000000,0.2169000000,0.8598400000
27.3000000000,0.1077500000,0.8916500000
29.3000000000,-0.0053380000,0.9143100000
31.3000000000,-0.1153100000,0.9318100000
33.2000000000,-0.2296200000,0.9419500000
35.2000000000,-0.3441400000,0.9453300000
37.1000000000,-0.4618300000,0.9389700000
39.1000000000,-0.5737600000,0.9236600000
41.0000000000,-0.6844900000,0.9059600000
43.0000000000,-0.7992000000,0.8757500000
44.9000000000,-0.9067600000,0.8411500000
46.9000000000,-1.0060000000,0.7970200000
48.8000000000,-1.1054000000,0.7463200000
50.8000000000,-1.1948000000,0.6856900000
52.7000000000,-1.2763000000,0.6226600000
54.7000000000,-1.3539000000,0.5475100000
56.6000000000,-1.4254000000,0.4703800000
58.6000000000,-1.4831000000,0.3896600000
60.5000000000,-1.5368000000,0.3008000000
62.5000000000,-1.5765000000,0.2051700000
64.5000000000,-1.6064000000,0.1095400000
66.4000000000,-1.6282000000,0.0078728000
68.4000000000,-1.6382000000,-0.0967990000
70.3000000000,-1.6302000000,-0.1970200000
72.3000000000,-1.6203000000,-0.3069600000
74.2000000000,-1.5964000000,-0.4129200000
76.2000000000,-1.5586000000,-0.5196800000
78.1000000000,-1.5149000000,-0.6280300000
80.1000000000,-1.4573000000,-0.7302200000
82.0000000000,-1.3837000000,-0.8306200000
84.0000000000,-1.3042000000,-0.9260400000
85.9000000000,-1.2147000000,-1.0199000000
87.9000000000,-1.1213000000,-1.1054000000
89.8000000000,-1.0099000000,-1.1928000000
91.8000000000,-0.8908500000,-1.2684000000
93.8000000000,-0.7703800000,-1.3400000000
95.7000000000,-0.6385700000,-1.4016000000
97.7000000000,-0.4992000000,-1.4573000000
99.6000000000,-0.3540800000,-1.4990000000
102.0000000000,-0.2091500000,-1.5368000000
104.0000000000,-0.0508950000,-1.5646000000
105.0000000000,0.1028800000,-1.5785000000
107.0000000000,0.2618300000,-1.5825000000
109.0000000000,0.4188900000,-1.5805000000
111.0000000000,0.5771400000,-1.5666000000
113.0000000000,0.7367800000,-1.5388000000
115.0000000000,0.8926400000,-1.5030000000
117.0000000000,1.0457000000,-1.4493000000
119.0000000000,1.1928000000,-1.3956000000
121.0000000000,1.3360000000,-1.3241000000
123.0000000000,1.4751000000,-1.2386000000
125.0000000000,1.6044000000,-1.1451000000
127.0000000000,1.7237000000,-1.0457000000
129.0000000000,1.8449000000,-0.9328000000
131.0000000000,1.9463000000,-0.8159000000
133.0000000000,2.0358000000,-0.6837000000
135.0000000000,2.1173000000,-0.5451300000
137.0000000000,2.1869000000,-0.4009900000
139.0000000000,2.2406000000,-0.2518900000
141.0000000000,2.2863000000,-0.0983500000
143.0000000000,2.3101000000,0.0603980000
145.0000000000,2.3221000000,0.2278300000
146.0000000000,2.3201000000,0.4025800000
148.0000000000,2.3082000000,0.5693800000
150.0000000000,2.2744000000,0.7391700000
152.0000000000,2.2227000000,0.9083500000
154.0000000000,2.1650000000,1.0775000000
156.0000000000,2.0895000000,1.2386000000
158.0000000000,1.9881000000,1.4076000000
160.0000000000,1.8847000000,1.5626000000
162.0000000000,1.7594000000,1.7137000000
164.0000000000,1.6203000000,1.8588000000
166.0000000000,1.4692000000,1.9901000000
168.0000000000,1.3062000000,2.1252000000
170.0000000000,1.1332000000,2.2445000000
172.0000000000,0.9536800000,2.3579000000
174.0000000000,0.7423500000,2.4453000000
176.0000000000,0.5439400000,2.5288000000
178.0000000000,0.3242500000,2.6004000000
180.0000000000,0.0984690000,2.6600000000
182.0000000000,-0.1270400000,2.7078000000
184.0000000000,-0.3600400000,2.7256000000
186.0000000000,-0.5992000000,2.7356000000
188.0000000000,-0.8431400000,2.7356000000
189.0000000000,-1.0855000000,2.7157000000
191.0000000000,-1.3280000000,2.6680000000
193.0000000000,-1.5586000000,2.6123000000
195.0000000000,-1.7972000000,2.5368000000
197.0000000000,-2.0358000000,2.4493000000
199.0000000000,-2.2525000000,2.3300000000
201.0000000000,-2.4712000000,2.1988000000
203.0000000000,-2.6839000000,2.0656000000
205.0000000000,-2.8767000000,1.9105000000
207.0000000000,-3.0696000000,1.7376000000
209.0000000000,-3.2425000000,1.5507000000
211.0000000000,-3.3956000000,1.3439000000
213.0000000000,-3.5268000000,1.1193000000
215.0000000000,-3.6600000000,0.8974200000
217.0000000000,-3.7694000000,0.6465200000
219.0000000000,-3.8489000000,0.3932400000
221.0000000000,-3.9145000000,0.1399600000
223.0000000000,-3.9523000000,-0.1296200000
225.0000000000,-3.9801000000,-0.4198800000
227.0000000000,-3.9920000000,-0.6982100000
229.0000000000,-3.9662000000,-0.9763400000
230.0000000000,-3.9026000000,-1.2485000000
232.0000000000,-3.8429000000,-1.5487000000
234.0000000000,-3.7555000000,-1.8211000000
236.0000000000,-3.6282000000,-2.1233000000
238.0000000000,-3.4950000000,-2.3996000000
240.0000000000,-3.3221000000,-2.6700000000
242.0000000000,-3.1372000000,-2.9304000000
244.0000000000,-2.9225000000,-3.1809000000
246.0000000000,-2.6978000000,-3.4115000000
248.0000000000,-2.4553000000,-3.6581000000
250.0000000000,-2.1909000000,-3.8728000000
252.0000000000,-1.8887000000,-4.0596000000
254.0000000000,-1.5666000000,-4.2744000000
256.0000000000,-1.2525000000,-4.4354000000
258.0000000000,-0.8876700000,-4.5706000000
260.0000000000,-0.5320100000,-4.6978000000
262.0000000000,-0.1691800000,-4.7813000000
264.0000000000,0.2397600000,-4.8509000000
266.0000000000,0.6188900000,-4.9046000000
268.0000000000,1.0026000000,-4.9245000000
270.0000000000,1.4076000000,-4.9125000000
271.0000000000,1.8270000000,-4.8907000000
273.0000000000,2.2187000000,-4.8191000000
275.0000000000,2.6302000000,-4.7276000000
277.0000000000,3.0318000000,-4.6322000000
279.0000000000,3.4195000000,-4.4692000000
281.0000000000,3.8032000000,-4.2604000000
283.0000000000,4.2008000000,-4.0517000000
285.0000000000,4.5686000000,-3.8171000000
287.0000000000,4.9105000000,-3.5865000000
289.0000000000,5.2545000000,-3.2863000000
291.0000000000,5.5885000000,-2.9463000000
293.0000000000,5.8688000000,-2.6103000000
295.0000000000,6.1431000000,-2.2346000000
297.0000000000,6.4095000000,-1.8469000000
299.0000000000,6.6243000000,-1.4175000000
301.0000000000,6.8151000000,-0.9992000000
303.0000000000,6.9682000000,-0.5232600000
305.0000000000,7.0994000000,-0.0346980000
307.0000000000,7.1988000000,0.4825000000
309.0000000000,7.2465000000,0.9672000000
311.0000000000,7.2584000000,1.5089000000
313.0000000000,7.2445000000,2.0497000000
314.0000000000,7.2048000000,2.6103000000
316.0000000000,7.0795000000,3.1650000000
318.0000000000,6.9344000000,3.7018000000
320.0000000000,6.7893000000,4.2505000000
322.0000000000,6.5746000000,4.7932000000
324.0000000000,6.3101000000,5.2883000000
326.0000000000,6.0338000000,5.8767000000
328.0000000000,5.7078000000,6.4115000000
330.0000000000,5.3598000000,6.9006000000
332.0000000000,4.8966000000,7.4294000000
334.0000000000,4.4235000000,7.8887000000
336.0000000000,3.9423000000,8.3340000000
338.0000000000,3.3857000000,8.7594000000
340.0000000000,2.8290000000,9.1869000000
342.0000000000,2.2545000000,9.5606000000
344.0000000000,1.6382000000,9.8748000000
346.0000000000,0.9626200000,10.2190000000
348.0000000000,0.2652100000,10.4970000000
350.0000000000,-0.4677900000,10.7160000000
352.0000000000,-1.1809000000,10.9150000000
354.0000000000,-1.9205000000,11.0740000000
355.0000000000,-2.7038000000,11.1530000000
357.0000000000,-3.4891000000,11.2130000000
359.0000000000,-4.2704000000,11.1930000000
361.0000000000,-5.0437000000,11.1330000000
363.0000000000,-5.8827000000,11.0340000000
365.0000000000,-6.6441000000,10.8950000000
367.0000000000,-7.4274000000,10.7160000000
369.0000000000,-8.2465000000,10.4970000000
371.0000000000,-8.9801000000,10.1990000000
373.0000000000,-9.7435000000,9.8628000000
375.0000000000,-10.4570000000,9.4930000000
377.0000000000,-11.2330000000,9.0318000000
379.0000000000,-11.9680000000,8.5209000000
381.0000000000,-12.6840000000,7.9165000000
383.0000000000,-13.3000000000,7.3340000000
385.0000000000,-13.8970000000,6.7018000000
387.0000000000,-14.4330000000,5.9781000000
389.0000000000,-15.0300000000,5.2664000000
391.0000000000,-15.5860000000,4.5229000000
393.0000000000,-15.9640000000,3.6799000000
395.0000000000,-16.4210000000,2.8628000000
396.0000000000,-16.7400000000,1.9662000000
398.0000000000,-17.0380000000,0.9656100000
400.0000000000,-17.2560000000,-0.0045129000
402.0000000000,-17.5350000000,-0.9202800000
404.0000000000,-17.6140000000,-1.8569000000
406.0000000000,-17.6940000000,-2.8946000000
408.0000000000,-17.6540000000,-3.9344000000
410.0000000000,-17.5550000000,-5.0437000000
412.0000000000,-17.5150000000,-6.0497000000
414.0000000000,-17.4350000000,-6.9602000000
416.0000000000,-17.2170000000,-8.0457000000
418.0000000000,-16.8190000000,-8.9881000000
420.0000000000,-16.3820000000,-9.9523000000
422.0000000000,-15.9440000000,-10.9340000000
424.0000000000,-15.3080000000,-11.8490000000
426.0000000000,-14.7510000000,-12.7440000000
428.0000000000,-14.1550000000,-13.7970000000
430.0000000000,-13.6180000000,-14.6720000000
432.0000000000,-12.9030000000,-15.5470000000
434.0000000000,-12.0480000000,-16.2620000000
436.0000000000,-11.2130000000,-16.8990000000
438.0000000000,-10.4970000000,-17.3360000000
439.0000000000,-9.5308000000,-18.0120000000
441.0000000000,-8.5149000000,-18.6080000000
443.0000000000,-7.4871000000,-18.6880000000
445.0000000000,-6.6103000000,-18.8470000000
447.0000000000,-5.3260000000,-19.2450000000
449.0000000000,-4.0179000000,-19.8210000000
451.0000000000,-3.2584000000,-19.8410000000
453.0000000000,-2.1968000000,-20.0800000000
455.0000000000,-0.8739600000,-19.8810000000
457.0000000000,0.5940000000,-19.6020000000
459.0000000000,1.7694000000,-19.2640000000
461.0000000000,2.8728000000,-19.2250000000
463.0000000000,3.8429000000,-18.9460000000
465.0000000000,4.8549000000,-18.1710000000
467.0000000000,5.7316000000,-17.9920000000
469.0000000000,6.6660000000,-17.1570000000
471.0000000000,7.7157000000,-16.4020000000
473.0000000000,8.9523000000,-15.6660000000
475.0000000000,10.2840000000,-15.1090000000
477.0000000000,11.2520000000,-14.1750000000
479.0000000000,11.9090000000,-12.9420000000
480.0000000000,12.3660000000,-11.7890000000
482.0000000000,13.1010000000,-10.5810000000
484.0000000000,13.9170000000,-9.7773000000
486.0000000000,14.9300000000,-8.5825000000
488.0000000000,15.3880000000,-7.3360000000
490.0000000000,15.2290000000,-6.4215000000
492.0000000000,15.2490000000,-5.0199000000
494.0000000000,15.6860000000,-3.5964000000
496.0000000000,16.1830000000,-2.1650000000
498.0000000000,16.0830000000,-0.7918500000
500.0000000000,15.7850000000,0.1982100000
